t (s),V (mV)
0,20.3762
0.975,20.3554
1.91,20.3325
2.884,20.312
3.874,20.2859
4.873,20.2587
5.873,20.2319
6.874,20.2039
7.873,20.1764
8.874,20.1477
9.873,20.1186
10.873,20.0884
11.874,20.0592
12.873,20.0297
13.875,19.9993
14.874,19.969
15.873,19.9403
16.873,19.9095
17.874,19.8806
18.874,19.8478
19.873,19.8201
20.874,19.7859
21.874,19.7549
22.873,19.7248
23.873,19.6943
24.874,19.6632
25.873,19.6323
26.874,19.5999
27.874,19.5695
28.873,19.5386
29.874,19.5074
30.874,19.4766
31.873,19.4455
32.874,19.4143
33.874,19.3831
34.873,19.353
35.873,19.3216
36.874,19.2896
37.874,19.2588
38.873,19.2283
39.873,19.1979
40.873,19.1672
41.873,19.1362
42.874,19.1061
43.873,19.0761
44.874,19.0455
45.874,19.015
46.874,18.9839
47.874,18.9533
48.873,18.9232
49.873,18.8934
50.874,18.8627
51.873,18.8326
52.874,18.8025
53.874,18.7726
54.873,18.7433
55.874,18.7133
56.874,18.6835
57.873,18.6547
58.874,18.6244
59.874,18.595
60.873,18.5657
61.873,18.5369
62.874,18.5053
63.874,18.4752
64.873,18.4466
65.874,18.4168
66.874,18.3874
67.873,18.3591
68.873,18.3295
69.873,18.3006
70.873,18.2714
71.874,18.2418
72.873,18.2136
73.874,18.1844
74.873,18.1562
75.873,18.1269
76.874,18.0974
77.873,18.0703
78.874,18.0407
79.873,18.0127
80.873,17.9837
81.873,17.955
82.874,17.9261
83.873,17.8979
84.874,17.869
85.873,17.8412
86.873,17.8124
87.874,17.7829
88.874,17.7565
89.873,17.7299
90.874,17.702
91.873,17.6744
92.873,17.6459
93.874,17.6183
94.873,17.59
95.874,17.5626
96.873,17.5357
97.874,17.5091
98.873,17.4813
99.874,17.4556
100.873,17.4288
101.874,17.4023
102.873,17.3751
103.874,17.3489
104.874,17.3187
105.873,17.2905
106.874,17.2644
107.873,17.238
108.873,17.2112
109.874,17.1852
110.874,17.1589
111.873,17.1316
112.874,17.1046
113.873,17.0775
114.874,17.0497
115.874,17.0226
116.873,16.9966
117.874,16.9695
118.874,16.9428
119.874,16.9167
120.874,16.8903
121.873,16.8639
122.874,16.8366
123.873,16.8111
124.874,16.7845
125.873,16.7588
126.873,16.7336
127.874,16.707
128.873,16.6811
129.874,16.6553
130.873,16.6301
131.874,16.6048
132.873,16.5798
133.873,16.5542
134.874,16.5298
135.873,16.5042
136.874,16.4801
137.873,16.4552
138.873,16.4304
139.874,16.4065
140.873,16.3818
141.874,16.3567
142.873,16.3324
143.874,16.3079
144.873,16.2834
145.874,16.259
146.873,16.2347
147.874,16.2107
148.873,16.1855
149.873,16.1613
150.874,16.1356
151.873,16.1107
152.874,16.0866
153.873,16.063
154.873,16.038
155.874,16.0131
156.873,15.9888
157.874,15.9617
158.874,15.9378
159.873,15.9146
160.874,15.8869
161.873,15.8635
162.874,15.8409
163.873,15.8173
164.874,15.793
165.873,15.7682
166.873,15.7448
167.873,15.7215
168.874,15.6961
169.874,15.6643
170.873,15.6478
171.873,15.6268
172.874,15.6048
173.873,15.5809
174.873,15.5585
175.873,15.5343
176.873,15.5115
177.873,15.4876
178.874,15.4652
179.874,15.4417
180.873,15.4186
181.874,15.3957
182.873,15.3718
183.874,15.3477
184.873,15.3251
185.874,15.3025
186.873,15.2798
187.874,15.2564
188.873,15.2335
189.874,15.2111
190.873,15.1874
191.874,15.1644
192.873,15.1417
193.874,15.119
194.873,15.0956
195.873,15.0729
196.873,15.0498
197.873,15.0272
198.874,15.0048
199.873,14.981
200.874,14.9583
201.873,14.9363
202.874,14.9132
203.874,14.8908
204.873,14.8676
205.874,14.844
206.873,14.8221
207.874,14.7992
208.873,14.7771
209.873,14.7548
210.874,14.7318
211.873,14.7104
212.874,14.6883
213.873,14.6666
214.873,14.6444
215.873,14.622
216.874,14.5995
217.873,14.5774
218.873,14.5552
219.874,14.5327
220.873,14.5119
221.874,14.4909
222.873,14.469
223.874,14.4471
224.873,14.4243
225.873,14.4013
226.874,14.3812
227.873,14.3602
228.874,14.3372
229.873,14.3154
230.874,14.2944
231.873,14.2725
232.873,14.2513
233.873,14.2329
234.874,14.213
235.873,14.1914
236.873,14.1715
237.874,14.1507
238.874,14.1266
239.873,14.1025
240.873,14.0829
241.874,14.0623
242.873,14.037
243.874,14.0201
244.873,14.0043
245.874,13.9851
246.873,13.9648
247.874,13.9435
248.873,13.923
249.874,13.9012
250.873,13.8791
251.874,13.85
252.873,13.8345
253.874,13.8162
254.873,13.7959
255.874,13.7751
256.873,13.7491
257.874,13.7296
258.873,13.7113
259.873,13.6913
260.873,13.6715
261.874,13.6503
262.873,13.6303
263.874,13.6101
264.873,13.59
265.873,13.569
266.874,13.5496
267.873,13.5299
268.874,13.5096
269.873,13.4899
270.873,13.4705
271.873,13.4505
272.874,13.4303
273.873,13.4101
274.873,13.3904
275.873,13.3707
276.873,13.3513
277.874,13.3317
278.873,13.3121
279.873,13.2932
280.874,13.2744
281.874,13.2552
282.873,13.2357
283.874,13.2174
284.873,13.1973
285.874,13.1779
286.873,13.158
287.874,13.1394
288.873,13.1193
289.874,13.1002
290.874,13.0807
291.874,13.0613
292.873,13.0392
293.874,13.0218
294.874,13.0026
295.874,12.9852
296.873,12.9686
297.874,12.9509
298.874,12.9317
299.873,12.912
300.873,12.8926
301.874,12.873
302.874,12.8475
303.873,12.8332
304.874,12.8152
305.873,12.7968
306.873,12.7776
307.874,12.7582
308.874,12.7397
309.873,12.7208
310.874,12.6959
311.874,12.6813
312.874,12.6631
313.873,12.6432
314.873,12.6269
315.873,12.6078
316.874,12.5887
317.873,12.5654
318.873,12.5438
319.873,12.5309
320.873,12.5124
321.873,12.4923
322.873,12.474
323.874,12.4566
324.874,12.4388
325.873,12.42
326.873,12.4001
327.874,12.3763
328.873,12.3597
329.873,12.3424
330.874,12.326
331.874,12.3061
332.873,12.2887
333.873,12.2714
334.874,12.2528
335.873,12.2344
336.873,12.2165
337.874,12.1948
338.873,12.1784
339.873,12.1612
340.874,12.1436
341.873,12.1255
342.873,12.1061
343.874,12.0849
344.873,12.0632
345.873,12.0509
346.873,12.0195
347.874,12.013
348.874,11.9988
349.873,11.9822
350.873,11.9654
351.874,11.9482
352.874,11.931
353.873,11.9137
354.873,11.8823
355.874,11.8754
356.874,11.8608
357.873,11.844
358.873,11.8267
359.874,11.8107
360.874,11.793
361.874,11.7739
362.873,11.7579
363.874,11.741
364.874,11.724
365.873,11.7068
366.874,11.6901
367.874,11.6725
368.873,11.6552
369.874,11.6391
370.874,11.6208
371.873,11.6044
372.874,11.5879
373.873,11.5698
374.874,11.5538
375.874,11.5363
376.873,11.5199
377.873,11.5027
378.873,11.4853
379.876,11.4704
380.873,11.4526
381.873,11.4361
382.873,11.4196
383.873,11.402
384.873,11.3847
385.874,11.3693
386.874,11.3527
387.874,11.3365
388.873,11.3194
389.873,11.3024
390.874,11.2864
391.874,11.2693
392.873,11.2528
393.873,11.2247
394.874,11.2179
395.874,11.2037
396.873,11.1877
397.873,11.1712
398.874,11.1565
399.873,11.139
400.873,11.1225
401.873,11.1061
